%%             99.87000            -0.04000    0             6.40000
% LAB  survey ------------------
% wanted position:  l, b, RA, DEC, and interpolated  NH
% 99.87 ;  -0.04 ; 329.87 ;  54.94 ;  0.760E+22
% nearest position: l, b, RA, DEC, and observed NH
%100.00 ;   0.00 ; 330.00 ;  55.05 ;  0.760E+22
% GASS III survey --------------
% NH - median within 6 arcmin radius   0.00    
% NH - mean within specified beam      0.00    
%%GASS      0  datapoints: v_lsr [km/s] and T_B [K] for beam weighted average and median within 6 arcmin
%%LAB     777  datapoints: v_lsr [km/s] and T_B [K]
    -399.83      0.01
    -398.80     -0.00
    -397.77     -0.00
    -396.74      0.00
    -395.71      0.00
    -394.68      0.00
    -393.65      0.00
    -392.61      0.00
    -391.58     -0.00
    -390.55     -0.00
    -389.52     -0.00
    -388.49     -0.01
    -387.46     -0.00
    -386.43     -0.00
    -385.40     -0.01
    -384.37     -0.00
    -383.34      0.00
    -382.31     -0.00
    -381.28     -0.01
    -380.25     -0.01
    -379.22     -0.01
    -378.19      0.00
    -377.16      0.01
    -376.13      0.01
    -375.10      0.00
    -374.07     -0.00
    -373.04     -0.00
    -372.00     -0.00
    -370.97     -0.00
    -369.94      0.00
    -368.91     -0.00
    -367.88     -0.00
    -366.85     -0.00
    -365.82     -0.00
    -364.79     -0.00
    -363.76     -0.01
    -362.73     -0.01
    -361.70     -0.00
    -360.67     -0.00
    -359.64     -0.00
    -358.61     -0.01
    -357.58     -0.01
    -356.55     -0.00
    -355.52      0.00
    -354.49      0.00
    -353.46      0.00
    -352.43      0.01
    -351.40      0.01
    -350.36      0.01
    -349.33      0.00
    -348.30     -0.00
    -347.27     -0.00
    -346.24     -0.00
    -345.21     -0.00
    -344.18     -0.00
    -343.15     -0.00
    -342.12     -0.00
    -341.09     -0.00
    -340.06     -0.00
    -339.03     -0.00
    -338.00     -0.00
    -336.97     -0.01
    -335.94     -0.00
    -334.91      0.00
    -333.88      0.00
    -332.85      0.00
    -331.82      0.00
    -330.79      0.00
    -329.76      0.00
    -328.72      0.00
    -327.69      0.01
    -326.66      0.01
    -325.63      0.01
    -324.60      0.01
    -323.57      0.01
    -322.54      0.01
    -321.51      0.01
    -320.48      0.01
    -319.45      0.00
    -318.42      0.01
    -317.39      0.01
    -316.36      0.01
    -315.33      0.01
    -314.30      0.01
    -313.27      0.01
    -312.24      0.01
    -311.21      0.01
    -310.18      0.01
    -309.15      0.01
    -308.11      0.00
    -307.08     -0.00
    -306.05      0.00
    -305.02      0.01
    -303.99      0.00
    -302.96      0.00
    -301.93      0.00
    -300.90      0.00
    -299.87     -0.00
    -298.84      0.00
    -297.81      0.01
    -296.78      0.01
    -295.75      0.01
    -294.72      0.01
    -293.69      0.00
    -292.66      0.00
    -291.63      0.00
    -290.60      0.01
    -289.57      0.01
    -288.54      0.01
    -287.51      0.01
    -286.47      0.01
    -285.44      0.01
    -284.41      0.01
    -283.38      0.01
    -282.35      0.00
    -281.32     -0.00
    -280.29      0.00
    -279.26      0.01
    -278.23      0.01
    -277.20      0.01
    -276.17      0.01
    -275.14      0.01
    -274.11      0.01
    -273.08      0.01
    -272.05      0.01
    -271.02      0.00
    -269.99      0.00
    -268.96      0.00
    -267.93      0.00
    -266.90      0.00
    -265.87      0.00
    -264.83      0.01
    -263.80      0.01
    -262.77      0.01
    -261.74      0.01
    -260.71      0.01
    -259.68      0.01
    -258.65      0.01
    -257.62      0.01
    -256.59      0.01
    -255.56      0.01
    -254.53      0.01
    -253.50      0.00
    -252.47      0.00
    -251.44      0.01
    -250.41      0.01
    -249.38      0.01
    -248.35      0.00
    -247.32      0.00
    -246.29      0.01
    -245.26      0.01
    -244.22      0.01
    -243.19      0.01
    -242.16      0.01
    -241.13      0.01
    -240.10      0.01
    -239.07      0.01
    -238.04      0.01
    -237.01      0.01
    -235.98      0.02
    -234.95      0.02
    -233.92      0.01
    -232.89      0.00
    -231.86      0.01
    -230.83      0.00
    -229.80      0.00
    -228.77      0.01
    -227.74      0.01
    -226.71      0.00
    -225.68      0.00
    -224.65      0.00
    -223.62      0.01
    -222.58      0.01
    -221.55      0.00
    -220.52      0.00
    -219.49      0.01
    -218.46      0.01
    -217.43      0.01
    -216.40      0.01
    -215.37      0.01
    -214.34      0.01
    -213.31      0.01
    -212.28      0.00
    -211.25      0.00
    -210.22      0.01
    -209.19      0.01
    -208.16      0.01
    -207.13      0.01
    -206.10      0.00
    -205.07      0.00
    -204.04      0.00
    -203.01      0.00
    -201.97      0.00
    -200.94      0.00
    -199.91      0.00
    -198.88      0.00
    -197.85      0.01
    -196.82      0.01
    -195.79      0.01
    -194.76      0.01
    -193.73      0.01
    -192.70      0.00
    -191.67      0.00
    -190.64      0.00
    -189.61      0.00
    -188.58      0.00
    -187.55      0.01
    -186.52      0.01
    -185.49      0.00
    -184.46      0.00
    -183.43      0.01
    -182.40      0.01
    -181.37      0.00
    -180.33      0.01
    -179.30      0.01
    -178.27      0.01
    -177.24      0.01
    -176.21      0.01
    -175.18      0.01
    -174.15      0.01
    -173.12      0.01
    -172.09      0.01
    -171.06      0.01
    -170.03      0.01
    -169.00      0.01
    -167.97      0.02
    -166.94      0.02
    -165.91      0.03
    -164.88      0.03
    -163.85      0.04
    -162.82      0.04
    -161.79      0.04
    -160.76      0.05
    -159.73      0.06
    -158.69      0.07
    -157.66      0.07
    -156.63      0.07
    -155.60      0.08
    -154.57      0.09
    -153.54      0.10
    -152.51      0.10
    -151.48      0.11
    -150.45      0.12
    -149.42      0.13
    -148.39      0.14
    -147.36      0.16
    -146.33      0.17
    -145.30      0.18
    -144.27      0.19
    -143.24      0.21
    -142.21      0.23
    -141.18      0.25
    -140.15      0.27
    -139.12      0.30
    -138.08      0.33
    -137.05      0.36
    -136.02      0.40
    -134.99      0.44
    -133.96      0.49
    -132.93      0.55
    -131.90      0.62
    -130.87      0.69
    -129.84      0.76
    -128.81      0.83
    -127.78      0.91
    -126.75      1.02
    -125.72      1.14
    -124.69      1.27
    -123.66      1.43
    -122.63      1.60
    -121.60      1.80
    -120.57      2.01
    -119.54      2.25
    -118.51      2.51
    -117.48      2.80
    -116.44      3.13
    -115.41      3.50
    -114.38      3.91
    -113.35      4.37
    -112.32      4.88
    -111.29      5.40
    -110.26      5.92
    -109.23      6.42
    -108.20      6.91
    -107.17      7.39
    -106.14      7.90
    -105.11      8.46
    -104.08      9.08
    -103.05      9.76
    -102.02     10.51
    -100.99     11.27
     -99.96     12.01
     -98.93     12.72
     -97.90     13.44
     -96.87     14.22
     -95.84     15.04
     -94.80     15.77
     -93.77     16.21
     -92.74     16.21
     -91.71     15.78
     -90.68     15.02
     -89.65     14.07
     -88.62     13.12
     -87.59     12.31
     -86.56     11.69
     -85.53     11.29
     -84.50     11.15
     -83.47     11.23
     -82.44     11.51
     -81.41     11.94
     -80.38     12.52
     -79.35     13.25
     -78.32     14.15
     -77.29     15.28
     -76.26     16.72
     -75.23     18.46
     -74.19     20.44
     -73.16     22.54
     -72.13     24.67
     -71.10     26.79
     -70.07     28.86
     -69.04     30.83
     -68.01     32.66
     -66.98     34.30
     -65.95     35.78
     -64.92     37.13
     -63.89     38.36
     -62.86     39.39
     -61.83     40.13
     -60.80     40.53
     -59.77     40.64
     -58.74     40.54
     -57.71     40.35
     -56.68     40.16
     -55.65     40.01
     -54.62     39.86
     -53.59     39.62
     -52.55     39.23
     -51.52     38.61
     -50.49     37.75
     -49.46     36.71
     -48.43     35.58
     -47.40     34.49
     -46.37     33.57
     -45.34     32.93
     -44.31     32.63
     -43.28     32.69
     -42.25     33.05
     -41.22     33.65
     -40.19     34.37
     -39.16     35.08
     -38.13     35.65
     -37.10     35.96
     -36.07     35.92
     -35.04     35.49
     -34.01     34.76
     -32.98     33.84
     -31.95     32.80
     -30.91     31.64
     -29.88     30.42
     -28.85     29.29
     -27.82     28.41
     -26.79     28.02
     -25.76     28.19
     -24.73     28.84
     -23.70     29.78
     -22.67     30.86
     -21.64     31.93
     -20.61     32.87
     -19.58     33.60
     -18.55     33.98
     -17.52     33.91
     -16.49     33.47
     -15.46     32.87
     -14.43     32.44
     -13.40     32.61
     -12.37     33.73
     -11.34     35.74
     -10.30     38.29
      -9.27     41.04
      -8.24     43.72
      -7.21     46.21
      -6.18     48.46
      -5.15     50.53
      -4.12     52.38
      -3.09     54.02
      -2.06     55.63
      -1.03     57.26
       0.00     58.44
       1.03     58.54
       2.06     57.14
       3.09     53.93
       4.12     48.76
       5.15     42.00
       6.18     34.45
       7.21     27.10
       8.24     20.74
       9.27     15.73
      10.30     12.01
      11.34      9.28
      12.37      7.24
      13.40      5.69
      14.43      4.50
      15.46      3.60
      16.49      2.90
      17.52      2.36
      18.55      1.93
      19.58      1.57
      20.61      1.28
      21.64      1.04
      22.67      0.86
      23.70      0.70
      24.73      0.58
      25.76      0.49
      26.79      0.41
      27.82      0.34
      28.85      0.28
      29.88      0.23
      30.91      0.20
      31.95      0.18
      32.98      0.15
      34.01      0.13
      35.04      0.11
      36.07      0.10
      37.10      0.08
      38.13      0.07
      39.16      0.07
      40.19      0.06
      41.22      0.06
      42.25      0.06
      43.28      0.06
      44.31      0.06
      45.34      0.06
      46.37      0.05
      47.40      0.05
      48.43      0.05
      49.46      0.05
      50.49      0.05
      51.52      0.04
      52.55      0.04
      53.59      0.04
      54.62      0.03
      55.65      0.03
      56.68      0.03
      57.71      0.02
      58.74      0.02
      59.77      0.02
      60.80      0.02
      61.83      0.02
      62.86      0.02
      63.89      0.02
      64.92      0.01
      65.95      0.02
      66.98      0.02
      68.01      0.02
      69.04      0.02
      70.07      0.02
      71.10      0.02
      72.13      0.02
      73.16      0.02
      74.19      0.02
      75.23      0.02
      76.26      0.02
      77.29      0.02
      78.32      0.01
      79.35      0.02
      80.38      0.02
      81.41      0.01
      82.44      0.01
      83.47      0.01
      84.50      0.01
      85.53      0.01
      86.56      0.01
      87.59      0.01
      88.62      0.01
      89.65      0.01
      90.68      0.01
      91.71      0.01
      92.74      0.01
      93.77      0.01
      94.80      0.01
      95.84      0.01
      96.87      0.01
      97.90      0.01
      98.93      0.02
      99.96      0.02
     100.99      0.01
     102.02      0.01
     103.05      0.01
     104.08      0.02
     105.11      0.03
     106.14      0.02
     107.17      0.01
     108.20      0.02
     109.23      0.02
     110.26      0.02
     111.29      0.01
     112.32      0.00
     113.35      0.01
     114.38      0.01
     115.41      0.01
     116.44      0.01
     117.48      0.01
     118.51      0.00
     119.54      0.00
     120.57      0.01
     121.60      0.01
     122.63      0.01
     123.66      0.01
     124.69      0.01
     125.72      0.01
     126.75      0.00
     127.78     -0.00
     128.81      0.00
     129.84      0.01
     130.87      0.01
     131.90      0.01
     132.93      0.01
     133.96      0.01
     134.99      0.01
     136.02      0.01
     137.05      0.01
     138.08      0.01
     139.12      0.00
     140.15      0.00
     141.18      0.01
     142.21      0.01
     143.24      0.01
     144.27      0.01
     145.30      0.01
     146.33      0.01
     147.36      0.01
     148.39      0.00
     149.42      0.00
     150.45      0.01
     151.48      0.01
     152.51      0.01
     153.54      0.01
     154.57      0.01
     155.60      0.01
     156.63      0.01
     157.66      0.01
     158.69      0.01
     159.73      0.01
     160.76      0.00
     161.79      0.00
     162.82      0.00
     163.85      0.00
     164.88      0.00
     165.91      0.00
     166.94      0.00
     167.97     -0.00
     169.00     -0.00
     170.03     -0.00
     171.06      0.00
     172.09      0.00
     173.12      0.00
     174.15     -0.00
     175.18     -0.00
     176.21     -0.00
     177.24     -0.01
     178.27     -0.01
     179.30     -0.00
     180.33     -0.00
     181.37      0.00
     182.40      0.00
     183.43      0.00
     184.46      0.01
     185.49      0.01
     186.52      0.01
     187.55      0.01
     188.58      0.01
     189.61      0.00
     190.64      0.00
     191.67      0.00
     192.70      0.00
     193.73      0.00
     194.76      0.00
     195.79      0.00
     196.82      0.00
     197.85     -0.00
     198.88      0.00
     199.91      0.00
     200.94      0.01
     201.97      0.01
     203.01      0.01
     204.04      0.00
     205.07     -0.00
     206.10     -0.00
     207.13     -0.01
     208.16     -0.01
     209.19     -0.01
     210.22     -0.01
     211.25     -0.01
     212.28     -0.00
     213.31     -0.00
     214.34     -0.01
     215.37     -0.00
     216.40     -0.00
     217.43     -0.00
     218.46     -0.00
     219.49     -0.00
     220.52     -0.00
     221.55     -0.00
     222.58     -0.00
     223.62      0.00
     224.65      0.01
     225.68      0.00
     226.71      0.00
     227.74      0.01
     228.77      0.01
     229.80     -0.00
     230.83      0.00
     231.86      0.00
     232.89      0.00
     233.92      0.00
     234.95      0.00
     235.98      0.00
     237.01      0.01
     238.04      0.01
     239.07      0.01
     240.10      0.01
     241.13      0.00
     242.16      0.00
     243.19     -0.00
     244.22      0.00
     245.26      0.00
     246.29      0.00
     247.32      0.00
     248.35      0.01
     249.38      0.00
     250.41     -0.00
     251.44     -0.00
     252.47     -0.00
     253.50     -0.00
     254.53     -0.01
     255.56     -0.01
     256.59     -0.00
     257.62      0.00
     258.65     -0.00
     259.68     -0.01
     260.71     -0.00
     261.74      0.00
     262.77      0.00
     263.80     -0.00
     264.83     -0.00
     265.86      0.00
     266.90      0.00
     267.93     -0.00
     268.96      0.00
     269.99      0.01
     271.02      0.00
     272.05     -0.00
     273.08      0.01
     274.11      0.01
     275.14     -0.00
     276.17     -0.00
     277.20     -0.01
     278.23     -0.01
     279.26     -0.00
     280.29     -0.00
     281.32     -0.00
     282.35      0.01
     283.38      0.01
     284.41      0.01
     285.44      0.01
     286.47      0.01
     287.51      0.00
     288.54      0.00
     289.57      0.00
     290.60      0.00
     291.63     -0.00
     292.66     -0.00
     293.69      0.00
     294.72      0.01
     295.75      0.01
     296.78      0.00
     297.81      0.01
     298.84      0.01
     299.87      0.00
     300.90      0.00
     301.93      0.00
     302.96      0.00
     303.99      0.00
     305.02      0.00
     306.05      0.00
     307.08     -0.00
     308.11     -0.00
     309.15      0.00
     310.18      0.01
     311.21      0.01
     312.24      0.01
     313.27      0.00
     314.30      0.00
     315.33      0.01
     316.36      0.00
     317.39      0.00
     318.42      0.00
     319.45     -0.00
     320.48     -0.00
     321.51     -0.00
     322.54      0.00
     323.57      0.00
     324.60     -0.00
     325.63     -0.00
     326.66      0.00
     327.69      0.00
     328.72     -0.01
     329.76     -0.01
     330.79      0.00
     331.82      0.00
     332.85      0.00
     333.88      0.00
     334.91      0.00
     335.94     -0.00
     336.97     -0.00
     338.00     -0.00
     339.03      0.00
     340.06      0.01
     341.09      0.00
     342.12     -0.00
     343.15     -0.00
     344.18      0.00
     345.21      0.00
     346.24      0.00
     347.27      0.00
     348.30     -0.00
     349.33     -0.00
     350.36      0.00
     351.40      0.00
     352.43     -0.00
     353.46     -0.01
     354.49     -0.01
     355.52     -0.01
     356.55     -0.01
     357.58     -0.01
     358.61     -0.01
     359.64     -0.01
     360.67     -0.01
     361.70     -0.01
     362.73     -0.00
     363.76      0.00
     364.79      0.00
     365.82      0.00
     366.85      0.01
     367.88      0.01
     368.91      0.01
     369.94      0.00
     370.97     -0.00
     372.00     -0.00
     373.04     -0.00
     374.07     -0.00
     375.10     -0.00
     376.13      0.00
     377.16      0.00
     378.19     -0.00
     379.22      0.00
     380.25      0.01
     381.28      0.01
     382.31      0.01
     383.34      0.01
     384.37      0.01
     385.40      0.00
     386.43      0.00
     387.46      0.01
     388.49      0.01
     389.52      0.01
     390.55      0.01
     391.58      0.01
     392.61      0.01
     393.65      0.01
     394.68      0.01
     395.71      0.01
     396.74      0.01
     397.77      0.01
     398.80      0.01
     399.83      0.01
   
